# XDI/1.0 Athena/0.9.25
# Element.edge:                  K
# Element.symbol:                H
# Column.1:                      k inverse Angstrom
# Column.2:                      chi_re
# Column.3:                      chi_im
# Column.4:                      chi_mag
# Column.5:                      chi_pha
# Column.6:                      window
# Column.7:                      chi
# Athena.e0:                     0
# Athena.eshift:                 0
# Athena.rbkg:                   1.0
# Athena.importance:             1
# Athena.standard:               None
# Athena.bkg_kweight:            2
# Athena.edge_step:              0
# Athena.fixed_step:             no
# Athena.pre_edge_range:         -150 -30
# Athena.pre_edge_line:          0.000000 + 0 * E
# Athena.normalization_range:    150 -100
# Athena.post_edge_polynomial:   0.000000 + 0 * E + 0 * E^2 + 0 * E^3
# Athena.spline_range_energy:    0.000 0.000
# Athena.clamps:                 0 24
# Athena.spline_range_k:         0.000 0.000
# Athena.kweight:                2
# Athena.window:                 Hanning
# Athena.phase_correction:       no
# Athena.k_range:                2 16
# Athena.dk:                     0
# Athena.r_range:                3.56 5
# Athena.dr:                     0
# Athena.window:                 hanning
# Athena.plot_multiplier:        1
# Athena.y_offset:               0
# ///
#------------------------
#  q chi_re chi_im chi_mag chi_pha win chi
  0.0000000       0.71322491E-02  -0.68091015E-02   0.98606714E-02  -0.76222324        0.0000000        0.0000000
  0.50000000E-01   0.96252770E-02  -0.38115348E-02   0.10352476E-01  -0.37704663        0.0000000      -0.40566733E-03
  0.10000000       0.10825297E-01   0.10667486E-03   0.10825823E-01   0.98539012E-02    0.0000000       0.35871770E-02
  0.15000000       0.10395269E-01   0.43709351E-02   0.11276821E-01   0.39803041        0.0000000       0.11781827E-01
  0.20000000       0.82605125E-02   0.82883366E-02   0.11701820E-01   0.78707950        0.0000000       0.21834242E-01
  0.25000000       0.46458722E-02   0.11169756E-01   0.12097420E-01    1.1766304        0.0000000       0.33111986E-01
  0.30000000       0.55598951E-04   0.12460376E-01   0.12460500E-01    1.5663343        0.0000000       0.44172935E-01
  0.35000000      -0.48034433E-02   0.11851842E-01   0.12788246E-01    1.9558555        0.0000000       0.54350984E-01
  0.40000000      -0.91422966E-02   0.93518839E-02   0.13078200E-01    2.3448624        0.0000000       0.61615846E-01
  0.45000000      -0.12231251E-01   0.52953384E-02   0.13328320E-01    2.7330201        0.0000000       0.69623779E-01
  0.50000000      -0.13533887E-01   0.29250971E-03   0.13537048E-01    3.1199829        0.0000000       0.76325918E-01
  0.55000000      -0.12806565E-01  -0.48759824E-02   0.13703405E-01    3.5053869        0.0000000       0.82874726E-01
  0.60000000      -0.10143006E-01  -0.93972356E-02   0.13827097E-01    3.8888434        0.0000000       0.88095304E-01
  0.65000000      -0.59551329E-02  -0.12569286E-01   0.13908651E-01    4.2699329        0.0000000       0.93800136E-01
  0.70000000      -0.89480761E-03  -0.13920845E-01   0.13949573E-01    4.6481990        0.0000000       0.96860129E-01
  0.75000000       0.42664036E-02  -0.13284252E-01   0.13952547E-01    5.0231461        0.0000000       0.10152397
  0.80000000       0.87738446E-02  -0.10808893E-01   0.13921657E-01    5.3942383        0.0000000       0.10525849
  0.85000000       0.12014545E-01  -0.69154845E-02   0.13862656E-01    5.7609057        0.0000000       0.10933246
  0.90000000       0.13605830E-01  -0.22044491E-02   0.13783258E-01    6.1225588        0.0000000       0.11211992
  0.95000000       0.13432779E-01   0.26591205E-02   0.13693446E-01    6.4786162        0.0000000       0.11386890
  1.0000000       0.11632065E-01   0.70577363E-02   0.13605755E-01    6.8285521        0.0000000       0.11392469
  1.0500000       0.85322143E-02   0.10507633E-01   0.13535473E-01    7.1719654        0.0000000       0.11334591
  1.1000000       0.45697785E-02   0.12703751E-01   0.13500673E-01    7.5086750        0.0000000       0.11107348
  1.1500000       0.20485302E-03   0.13520391E-01   0.13521943E-01    7.8388314        0.0000000       0.10693331
  1.2000000      -0.41430246E-02   0.12976376E-01   0.13621710E-01    8.1630262        0.0000000       0.10228911
  1.2500000      -0.81257223E-02   0.11182595E-01   0.13823089E-01    8.4823640        0.0000000       0.94427919E-01
  1.3000000      -0.11462789E-01   0.82933236E-02   0.14148313E-01    8.7984539        0.0000000       0.85318772E-01
  1.3500000      -0.13913603E-01   0.44797104E-02   0.14616982E-01    9.1132924        0.0000000       0.75947099E-01
  1.4000000      -0.15244378E-01  -0.65049470E-04   0.15244517E-01    9.4290450        0.0000000       0.66496725E-01
  1.4500000      -0.15211637E-01  -0.50916926E-02   0.16041173E-01    9.7477792        0.0000000       0.56245467E-01
  1.5000000      -0.13579327E-01  -0.10247167E-01   0.17011836E-01    10.071226        0.0000000       0.45977730E-01
  1.5500000      -0.10175980E-01  -0.15036938E-01   0.18156543E-01    10.400636        0.0000000       0.38732004E-01
  1.6000000      -0.49838223E-02  -0.18822855E-01   0.19471475E-01    10.736739       0.78560000E-01   0.30198270E-01
  1.6500000       0.17625538E-02  -0.20875814E-01   0.20950089E-01    11.079805       0.72818000       0.24139464E-01
  1.7000000       0.95001994E-02  -0.20488791E-01   0.22584162E-01    11.429744        1.0000000       0.19889332E-01
  1.7500000       0.17318587E-01  -0.17137691E-01   0.24364603E-01    11.786222        1.0000000       0.16720554E-01
  1.8000000       0.24023357E-01  -0.10659382E-01   0.26282011E-01    12.148760        1.0000000       0.14611851E-01
  1.8500000       0.28292233E-01  -0.14032526E-02   0.28327012E-01    12.516813        1.0000000       0.15076196E-01
  1.9000000       0.28909353E-01   0.96910215E-02   0.30490434E-01    12.889819        1.0000000       0.15606075E-01
  1.9500000       0.25040488E-01   0.21128487E-01   0.32763379E-01    13.267238        1.0000000       0.19352687E-01
  2.0000000       0.16493066E-01   0.31025842E-01   0.35137218E-01    13.648567        1.0000000       0.21810294E-01
  2.0500000       0.38970207E-02   0.37401082E-01   0.37603559E-01    14.033346        1.0000000       0.26282060E-01
  2.1000000      -0.11251077E-01   0.38545727E-01   0.40154200E-01    14.421166        1.0000000       0.30511918E-01
  2.1500000      -0.26716929E-01   0.33412962E-01   0.42781074E-01    14.811663        1.0000000       0.34684550E-01
  2.2000000      -0.39833702E-01   0.21939936E-01   0.45476198E-01    15.204515        1.0000000       0.36910972E-01
  2.2500000      -0.47947902E-01   0.52239044E-02   0.48231633E-01    15.599442        1.0000000       0.37048652E-01
  2.3000000      -0.48933965E-01  -0.14508344E-01   0.51039446E-01    15.996195        1.0000000       0.37680025E-01
  2.3500000      -0.41680310E-01  -0.34162330E-01   0.53891679E-01    16.394558        1.0000000       0.33994736E-01
  2.4000000      -0.26442312E-01  -0.50247491E-01   0.56780333E-01    16.794340        1.0000000       0.28217042E-01
  2.4500000      -0.49722493E-02  -0.59489918E-01   0.59697350E-01    17.195372        1.0000000       0.20403679E-01
  2.5000000       0.19628201E-01  -0.59479643E-01   0.62634609E-01    17.597506        1.0000000       0.10525932E-01
  2.5500000       0.43336176E-01  -0.49226273E-01   0.65583917E-01    18.000610        1.0000000      -0.24049746E-02
  2.6000000       0.61862534E-01  -0.29501682E-01   0.68537015E-01    18.404566        1.0000000      -0.19835856E-01
  2.6500000       0.71427580E-01  -0.28791174E-02   0.71485583E-01    18.809270        1.0000000      -0.36777373E-01
  2.7000000       0.69516789E-01   0.26569501E-01   0.74421250E-01    19.214626        1.0000000      -0.57261162E-01
  2.7500000       0.55466467E-01   0.53891248E-01   0.77335603E-01    19.620551        1.0000000      -0.82372163E-01
  2.8000000       0.30749881E-01   0.74092689E-01   0.80220208E-01    20.026966        1.0000000      -0.10773727
  2.8500000      -0.11170656E-02   0.83059109E-01   0.83066620E-01    20.433800        1.0000000      -0.13484191
  2.9000000      -0.35062909E-01   0.78381329E-01   0.85866409E-01    20.840990        1.0000000      -0.16650579
  2.9500000      -0.65276514E-01   0.59924267E-01   0.88611179E-01    21.248474        1.0000000      -0.19767343
  3.0000000      -0.86219086E-01   0.30010100E-01   0.91292589E-01    21.656196        1.0000000      -0.23317105
  3.0500000      -0.93652595E-01  -0.68446192E-02   0.93902383E-01    22.064104        1.0000000      -0.26991548
  3.1000000      -0.85490505E-01  -0.44615950E-01   0.96432409E-01    22.472148        1.0000000      -0.30521785
  3.1500000      -0.62299561E-01  -0.76778653E-01   0.98874653E-01    22.880281        1.0000000      -0.34351756
  3.2000000      -0.27339095E-01  -0.97459315E-01   0.10122126        23.288456        1.0000000      -0.37830466
  3.2500000       0.13893014E-01  -0.10252758       0.10346458        23.696630        1.0000000      -0.41291151
  3.3000000       0.54545946E-01  -0.90418492E-01   0.10559718        24.104759        1.0000000      -0.44627469
  3.3500000       0.87586670E-01  -0.62521113E-01   0.10761187        24.512800        1.0000000      -0.47395984
  3.4000000       0.10704957      -0.23044034E-01   0.10950177        24.920712        1.0000000      -0.50275022
  3.4500000       0.10913635       0.21635944E-01   0.11126031        25.328451        1.0000000      -0.52237019
  3.5000000       0.92958433E-01   0.64038382E-01   0.11288129        25.735974        1.0000000      -0.53910910
  3.5500000       0.60774982E-01   0.96872881E-01   0.11435888        26.143237        1.0000000      -0.54869634
  3.6000000       0.17670370E-01   0.11433025       0.11568771        26.550195        1.0000000      -0.55372201
  3.6500000      -0.29281821E-01   0.11313490       0.11686287        26.956802        1.0000000      -0.55465156
  3.7000000      -0.72224902E-01   0.93162489E-01   0.11787996        27.363008        1.0000000      -0.54643223
  3.7500000      -0.10388117       0.57504231E-01   0.11873514        27.768763        1.0000000      -0.53299829
  3.8000000      -0.11882470       0.11960765E-01   0.11942517        28.174013        1.0000000      -0.51622096
  3.8500000      -0.11443431      -0.35946893E-01   0.11994745        28.578700        1.0000000      -0.48952305
  3.9000000      -0.91353953E-01  -0.78272385E-01   0.12030009        28.982764        1.0000000      -0.46591217
  3.9500000      -0.53378613E-01  -0.10801215       0.12048195        29.386141        1.0000000      -0.43398790
  4.0000000      -0.67886900E-02  -0.12030133       0.12049273        29.788759        1.0000000      -0.40047555
  4.0500000       0.40743182E-01  -0.11322550       0.12033296        30.190545        1.0000000      -0.36172589
  4.1000000       0.81472889E-01  -0.88108838E-01   0.12000416        30.591417        1.0000000      -0.32283053
  4.1500000       0.10889499      -0.49236662E-01   0.11950886        30.991288        1.0000000      -0.27986216
  4.2000000       0.11881096      -0.30736557E-02   0.11885071        31.390062        1.0000000      -0.23867245
  4.2500000       0.10997364       0.42871358E-01   0.11803455        31.787638        1.0000000      -0.18968596
  4.3000000       0.84208048E-01   0.81323905E-01   0.11706653        32.183903        1.0000000      -0.14385509
  4.3500000       0.46006093E-01   0.10643696       0.11595425        32.578738        1.0000000      -0.99443613E-01
  4.4000000       0.16874171E-02   0.11469441       0.11470683        32.972012        1.0000000      -0.47329748E-01
  4.4500000      -0.41707856E-01   0.10538167       0.11333509        33.363585        1.0000000       0.20605415E-02
  4.5000000      -0.77589294E-01   0.80564897E-01   0.11185169        33.753309        1.0000000       0.50496406E-01
  4.5500000      -0.10084445       0.44611196E-01   0.11027131        34.141023        1.0000000       0.93779649E-01
  4.6000000      -0.10855874       0.33617878E-02   0.10861078        34.526562        1.0000000       0.14541226
  4.6500000      -0.10032685      -0.36876084E-01   0.10688930        34.909751        1.0000000       0.19026430
  4.7000000      -0.78135807E-01  -0.70333550E-01   0.10512855        35.290414        1.0000000       0.23246749
  4.7500000      -0.45877566E-01  -0.92612503E-01   0.10335292        35.668378        1.0000000       0.27313984
  4.8000000      -0.86086042E-02  -0.10122415       0.10158955        36.043475        1.0000000       0.31199494
  4.8500000       0.28293361E-01  -0.95776738E-01   0.99868403E-01    36.415556        1.0000000       0.34895927
  4.9000000       0.59925112E-01  -0.77824063E-01   0.98222217E-01    36.784499        1.0000000       0.37823673
  4.9500000       0.82483660E-01  -0.50444920E-01   0.96686318E-01    37.150225        1.0000000       0.40382647
  5.0000000       0.93647457E-01  -0.17660984E-01   0.95298251E-01    37.512711        1.0000000       0.42390508
  5.0500000       0.92694250E-01   0.16188133E-01   0.94097182E-01    37.872008        1.0000000       0.44252877
  5.1000000       0.80387400E-01   0.47008181E-01   0.93123054E-01    38.228258        1.0000000       0.45284435
  5.1500000       0.58697777E-01   0.71380603E-01   0.92415472E-01    38.581704        1.0000000       0.46420362
  5.2000000       0.30442488E-01   0.86830456E-01   0.92012353E-01    38.932702        1.0000000       0.46833343
  5.2500000      -0.10854954E-02   0.91942010E-01   0.91948418E-01    39.281714        1.0000000       0.46768857
  5.3000000      -0.32446157E-01   0.86359615E-01   0.92253651E-01    39.629301        1.0000000       0.47012403
  5.3500000      -0.60320040E-01   0.70721624E-01   0.92951898E-01    39.976096        1.0000000       0.46447011
  5.4000000      -0.81723363E-01   0.46567473E-01   0.94059755E-01    40.322773        1.0000000       0.46393406
  5.4500000      -0.94196718E-01   0.16237200E-01   0.95585921E-01    40.670007        1.0000000       0.46369224
  5.5000000      -0.95994707E-01  -0.17243091E-01   0.97531061E-01    41.018435        1.0000000       0.45961238
  5.5500000      -0.86289097E-01  -0.50317445E-01   0.99888205E-01    41.368624        1.0000000       0.45987467
  5.6000000      -0.65372263E-01  -0.79133875E-01   0.10264357        41.721048        1.0000000       0.46051515
  5.6500000      -0.34819481E-01  -0.99882567E-01   0.10577771        42.076070        1.0000000       0.46550214
  5.7000000       0.24519623E-02  -0.10923924       0.10926675        42.433943        1.0000000       0.47140994
  5.7500000       0.42293013E-01  -0.10487721       0.11308372        42.794816        1.0000000       0.47547698
  5.8000000       0.79651516E-01  -0.85973234E-01   0.11719966        43.158749        1.0000000       0.48702126
  5.8500000       0.10913051      -0.53603728E-01   0.12158465        43.525723        1.0000000       0.49916984
  5.9000000       0.12573526      -0.10920154E-01   0.12620858        43.895664        1.0000000       0.51051407
  5.9500000       0.12571304       0.36988837E-01   0.13104176        44.268454        1.0000000       0.52800155
  6.0000000       0.10734497       0.83594894E-01   0.13605531        44.643946        1.0000000       0.54513638
  6.0500000       0.71528450E-01   0.12176693       0.14122148        45.021975        1.0000000       0.56175617
  6.1000000       0.21999951E-01   0.14485261       0.14651374        45.402367        1.0000000       0.58474605
  6.1500000      -0.34905626E-01   0.14784220       0.15190694        45.784948        1.0000000       0.60391278
  6.2000000      -0.90986622E-01   0.12840963       0.15737725        46.169545        1.0000000       0.62028430
  6.2500000      -0.13733193       0.87618874E-01   0.16290220        46.555991        1.0000000       0.63833446
  6.3000000      -0.16574606       0.30119918E-01   0.16846057        46.944128        1.0000000       0.65185051
  6.3500000      -0.17021207      -0.36264755E-01   0.17403242        47.333807        1.0000000       0.66428940
  6.4000000      -0.14812790      -0.10155735       0.17959891        47.724890        1.0000000       0.67183249
  6.4500000      -0.10106564      -0.15512392       0.18514236        48.117246        1.0000000       0.67532236
  6.5000000      -0.34867853E-01  -0.18743042       0.19064608        48.510758        1.0000000       0.67536875
  6.5500000       0.40998314E-01  -0.19176064       0.19609438        48.905314        1.0000000       0.66669036
  6.6000000       0.11477699      -0.16558202       0.20147249        49.300816        1.0000000       0.65638318
  6.6500000       0.17426477      -0.11128424       0.20676652        49.697168        1.0000000       0.63462615
  6.7000000       0.20886489      -0.36110105E-01   0.21196340        50.094287        1.0000000       0.61228658
  6.7500000       0.21150157       0.48766554E-01   0.21705089        50.492095        1.0000000       0.57938750
  6.8000000       0.18004321       0.12990848       0.22201750        50.890519        1.0000000       0.53968584
  6.8500000       0.11795038       0.19377760       0.22685249        51.289494        1.0000000       0.49635853
  6.9000000       0.33987877E-01   0.22903775       0.23154582        51.688960        1.0000000       0.43916744
  6.9500000      -0.58999174E-01   0.22859729       0.23608816        52.088859        1.0000000       0.39252735
  7.0000000      -0.14607702       0.19101767       0.24047089        52.489141        1.0000000       0.33295455
  7.0500000      -0.21266857       0.12100957       0.24468600        52.889758        1.0000000       0.27597347
  7.1000000      -0.24704278       0.28888947E-01   0.24872617        53.290665        1.0000000       0.21516169
  7.1500000      -0.24241386      -0.70954576E-01   0.25258470        53.691821        1.0000000       0.14804742
  7.2000000      -0.19826841      -0.16234697       0.25625554        54.093189        1.0000000       0.92215004E-01
  7.2500000      -0.12066194      -0.23000446       0.25973324        54.494733        1.0000000       0.31793241E-01
  7.3000000      -0.21399610E-01  -0.26214094       0.26301295        54.896418        1.0000000      -0.30333770E-01
  7.3500000       0.83789758E-01  -0.25255376       0.26609045        55.298214        1.0000000      -0.83187005E-01
  7.4000000       0.17779803      -0.20181293       0.26896207        55.700092        1.0000000      -0.13588686
  7.4500000       0.24497876      -0.11732609       0.27162475        56.102023        1.0000000      -0.19194239
  7.5000000       0.27380238      -0.12243343E-01   0.27407598        56.503982        1.0000000      -0.24288335
  7.5500000       0.25886555       0.96633101E-01   0.27631382        56.905942        1.0000000      -0.29061905
  7.6000000       0.20189921       0.19159366       0.27833688        57.307882        1.0000000      -0.33364208
  7.6500000       0.11158757       0.25696118       0.28014431        57.709778        1.0000000      -0.37774777
  7.7000000       0.22133991E-02   0.28172707       0.28173577        58.111608        1.0000000      -0.42128474
  7.7500000      -0.10865281       0.26143195       0.28311146        58.513351        1.0000000      -0.45735960
  7.8000000      -0.20303595       0.19896485       0.28427207        58.914989        1.0000000      -0.49154241
  7.8500000      -0.26552764       0.10413852       0.28521879        59.316501        1.0000000      -0.52320942
  7.9000000      -0.28584432      -0.78936041E-02   0.28595329        59.717868        1.0000000      -0.55813835
  7.9500000      -0.26053997      -0.11911506       0.28647770        60.119074        1.0000000      -0.59214747
  8.0000000      -0.19358496      -0.21160343       0.28679461        60.520099        1.0000000      -0.62094404
  8.0500000      -0.95715064E-01  -0.27047046       0.28690703        60.920926        1.0000000      -0.64998430
  8.1000000       0.17337073E-01  -0.28629396       0.28681842        61.321540        1.0000000      -0.68089841
  8.1500000       0.12742783      -0.25663807       0.28653263        61.721922        1.0000000      -0.70888624
  8.2000000       0.21697056      -0.18641516       0.28605391        62.122058        1.0000000      -0.73571737
  8.2500000       0.27179021      -0.87038772E-01   0.28538687        62.521930        1.0000000      -0.76559463
  8.3000000       0.28339333       0.25480310E-01   0.28453651        62.921523        1.0000000      -0.79123571
  8.3500000       0.25028601       0.13316826       0.28350815        63.320822        1.0000000      -0.82385925
  8.4000000       0.17813552       0.21900968       0.28230746        63.719810        1.0000000      -0.84609587
  8.4500000       0.78766543E-01   0.26967265       0.28094040        64.118473        1.0000000      -0.87525795
  8.5000000      -0.31824265E-01   0.27759497       0.27941322        64.516794        1.0000000      -0.89966485
  8.5500000      -0.13609371       0.24210294       0.27773249        64.914759        1.0000000      -0.92436900
  8.6000000      -0.21777775       0.16940014       0.27590498        65.312353        1.0000000      -0.94526526
  8.6500000      -0.26445504       0.71452240E-01   0.27393775        65.709560        1.0000000      -0.96641189
  8.7000000      -0.26944022      -0.36026407E-01   0.27183807        66.106366        1.0000000      -0.98027356
  8.7500000      -0.23271839      -0.13613792       0.26961340        66.502755        1.0000000      -0.99060742
  8.8000000      -0.16079591      -0.21349164       0.26727141        66.898714        1.0000000       -1.0002441
  8.8500000      -0.65521309E-01  -0.25658635       0.26481994        67.294227        1.0000000       -1.0100079
  8.9000000       0.37905590E-01  -0.25951325       0.26226696        67.689281        1.0000000       -1.0055800
  8.9500000       0.13339521      -0.22272983       0.25962060        68.083860        1.0000000       -1.0007367
  9.0000000       0.20649570      -0.15281208       0.25688909        68.477952        1.0000000      -0.98669421
  9.0500000       0.24658560      -0.61258231E-01   0.25408076        68.871542        1.0000000      -0.97465453
  9.1000000       0.24839901       0.37434962E-01   0.25120399        69.264618        1.0000000      -0.95404475
  9.1500000       0.21266885       0.12809601       0.24826725        69.657167        1.0000000      -0.92669046
  9.2000000       0.14582126       0.19722564       0.24527901        70.049176        1.0000000      -0.89957298
  9.2500000       0.58805445E-01   0.23500191       0.24224776        70.440636        1.0000000      -0.86711237
  9.3000000      -0.34725630E-01   0.23664773       0.23918198        70.831535        1.0000000      -0.82979126
  9.3500000      -0.12057720       0.20297702       0.23609009        71.221863        1.0000000      -0.78981653
  9.4000000      -0.18617204       0.14007094       0.23298046        71.611613        1.0000000      -0.74151512
  9.4500000      -0.22237874       0.58171648E-01   0.22986136        72.000776        1.0000000      -0.69373966
  9.5000000      -0.22474700      -0.30003982E-01   0.22674094        72.389347        1.0000000      -0.64160855
  9.5500000      -0.19399107      -0.11125011       0.22362719        72.777323        1.0000000      -0.58706460
  9.6000000      -0.13568419      -0.17384582       0.22052793        73.164699        1.0000000      -0.52918606
  9.6500000      -0.59247142E-01  -0.20922383       0.21745076        73.551476        1.0000000      -0.47503853
  9.7000000       0.23585302E-01  -0.21310183       0.21440302        73.937655        1.0000000      -0.41759429
  9.7500000       0.10056881      -0.18593655       0.21139179        74.323239        1.0000000      -0.36089858
  9.8000000       0.16074759      -0.13266761       0.20842380        74.708235        1.0000000      -0.30828650
  9.8500000       0.19598543      -0.61823989E-01   0.20550546        75.092652        1.0000000      -0.24887937
  9.9000000       0.20202226       0.15845848E-01   0.20264276        75.476500        1.0000000      -0.19431467
  9.9500000       0.17892882       0.89000064E-01   0.19984127        75.859793        1.0000000      -0.13565347
  10.000000       0.13092493       0.14734139       0.19710612        76.242549        1.0000000      -0.84019959E-01
  10.050000       0.65619145E-01   0.18303493       0.19444191        76.624788        1.0000000      -0.38460127E-01
  10.100000      -0.71949360E-02   0.19171778       0.19185274        77.006531        1.0000000       0.71873673E-02
  10.150000      -0.76996228E-01   0.17297984       0.18934213        77.387806        1.0000000       0.46440731E-01
  10.200000      -0.13403360       0.13027462       0.18691303        77.768639        1.0000000       0.85366930E-01
  10.250000      -0.17065549       0.70299152E-01   0.18456779        78.149063        1.0000000       0.13390633
  10.300000      -0.18229765       0.19518648E-02   0.18230810        78.529110        1.0000000       0.15551559
  10.350000      -0.16800996      -0.64971491E-01   0.18013507        78.908815        1.0000000       0.20081986
  10.400000      -0.13047049      -0.12115669       0.17804912        79.288217        1.0000000       0.22148611
  10.450000      -0.75505407E-01  -0.15903635       0.17605007        79.667353        1.0000000       0.25345032
  10.500000      -0.11197733E-01  -0.17377668       0.17413708        80.046264        1.0000000       0.27504245
  10.550000       0.53281970E-01  -0.16386374       0.17230871        80.424989        1.0000000       0.30721549
  10.600000       0.10895818      -0.13122433       0.17056292        80.803570        1.0000000       0.33766274
  10.650000       0.14827267      -0.80879206E-01   0.16889710        81.182046        1.0000000       0.35627515
  10.700000       0.16608578      -0.20187131E-01   0.16730812        81.560456        1.0000000       0.38655393
  10.750000       0.16032909       0.42210056E-01   0.16579235        81.938839        1.0000000       0.40333770
  10.800000       0.13222995       0.97594904E-01   0.16434575        82.317231        1.0000000       0.43305849
  10.850000       0.86085803E-01   0.13837072       0.16296386        82.695666        1.0000000       0.44627295
  10.900000       0.28625155E-01   0.15908712       0.16164192        83.074176        1.0000000       0.47494828
  10.950000      -0.31953604E-01   0.15715937       0.16037488        83.452791        1.0000000       0.49377411
  11.000000      -0.87132883E-01   0.13318770       0.15915748        83.831535        1.0000000       0.51787824
  11.050000      -0.12925856       0.90836533E-01   0.15798434        84.210432        1.0000000       0.53044780
  11.100000      -0.15259342       0.36292771E-01   0.15684998        84.589500        1.0000000       0.55211292
  11.150000      -0.15409745      -0.22620718E-01   0.15574891        84.968756        1.0000000       0.57557198
  11.200000      -0.13382844      -0.77553270E-01   0.15467566        85.348209        1.0000000       0.59204847
  11.250000      -0.94907759E-01  -0.12080201       0.15362490        85.727870        1.0000000       0.61231381
  11.300000      -0.43056782E-01  -0.14639075       0.15259141        86.107742        1.0000000       0.61926123
  11.350000       0.14230926E-01  -0.15090065       0.15157020        86.487826        1.0000000       0.63713089
  11.400000       0.68764556E-01  -0.13393547       0.15055655        86.868120        1.0000000       0.64196853
  11.450000       0.11282541      -0.98155164E-01   0.14954601        87.248618        1.0000000       0.65727580
  11.500000       0.14026365      -0.48873345E-01   0.14853449        87.629311        1.0000000       0.65769553
  11.550000       0.14736497       0.67233387E-02   0.14751826        88.010186        1.0000000       0.67768199
  11.600000       0.13336269       0.60620841E-01   0.14649401        88.391231        1.0000000       0.68404364
  11.650000       0.10052178       0.10513632       0.14545884        88.772427        1.0000000       0.68293792
  11.700000       0.53784025E-01   0.13402098       0.14441033        89.153755        1.0000000       0.68803400
  11.750000       0.28075071E-04   0.14334651       0.14334651        89.535195        1.0000000       0.69378853
  11.800000      -0.52945334E-01   0.13204687       0.14226590        89.916723        1.0000000       0.69554681
  11.850000      -0.97552238E-01   0.10203835       0.14116750        90.298316        1.0000000       0.69852897
  11.900000      -0.12752010       0.57903892E-01   0.14005084        90.679948        1.0000000       0.71143691
  11.950000      -0.13877780       0.61926859E-02   0.13891590        91.061594        1.0000000       0.71433972
  12.000000      -0.13001236      -0.45557442E-01   0.13776318        91.443226        1.0000000       0.71339476
  12.050000      -0.10281509      -0.89927106E-01   0.13659366        91.824818        1.0000000       0.71238462
  12.100000      -0.61401915E-01  -0.12068696       0.13540878        92.206344        1.0000000       0.71436296
  12.150000      -0.11956363E-01  -0.13367679       0.13421043        92.587778        1.0000000       0.70801930
  12.200000       0.38301025E-01  -0.12736674       0.13300096        92.969095        1.0000000       0.71254715
  12.250000       0.82174713E-01  -0.10302474       0.13178308        93.350272        1.0000000       0.70063816
  12.300000       0.11352919      -0.64474937E-01   0.13055993        93.731286        1.0000000       0.69764528
  12.350000       0.12814662      -0.17491997E-01   0.12933494        94.112118        1.0000000       0.69359683
  12.400000       0.12428699       0.31070774E-01   0.12811187        94.492751        1.0000000       0.68018369
  12.450000       0.10287793       0.74285949E-01   0.12689472        94.873170        1.0000000       0.68101724
  12.500000       0.67317519E-01   0.10614026       0.12568772        95.253366        1.0000000       0.66876002
  12.550000       0.22930537E-01   0.12236525       0.12449523        95.633330        1.0000000       0.65989224
  12.600000      -0.23833393E-01   0.12099677       0.12332173        96.013062        1.0000000       0.63876261
  12.650000      -0.66337244E-01   0.10259286       0.12217171        96.392562        1.0000000       0.62615798
  12.700000      -0.98692889E-01   0.70090860E-01   0.12104964        96.771839        1.0000000       0.60160403
  12.750000      -0.11656518       0.28336148E-01   0.11995990        97.150905        1.0000000       0.58318814
  12.800000      -0.11773656      -0.16640438E-01   0.11890669        97.529778        1.0000000       0.56711140
  12.850000      -0.10236270      -0.58488206E-01   0.11789399        97.908483        1.0000000       0.54022507
  12.900000      -0.72894591E-01  -0.91421751E-01   0.11692544        98.287049        1.0000000       0.52270092
  12.950000      -0.33688998E-01  -0.11100475       0.11600432        98.665512        1.0000000       0.49916477
  13.000000       0.96303517E-02  -0.11473001       0.11513348        99.043912        1.0000000       0.47231590
  13.050000       0.50967716E-01  -0.10232431       0.11431523        99.422295        1.0000000       0.45181208
  13.100000       0.84596440E-01  -0.75745325E-01   0.11355136        99.800712        1.0000000       0.42816464
  13.150000       0.10593394      -0.38878659E-01   0.11284303        100.17922        1.0000000       0.40615753
  13.200000       0.11215015       0.30184179E-02   0.11219076        100.55787        1.0000000       0.39014622
  13.250000       0.10253282       0.44049184E-01   0.11159440        100.93673        1.0000000       0.37177129
  13.300000       0.78565393E-01   0.78487429E-01   0.11105313        101.31587        1.0000000       0.34237318
  13.350000       0.43709928E-01   0.10155862       0.11056541        101.69533        1.0000000       0.31806433
  13.400000       0.29251500E-02   0.11009020       0.11012905        102.07520        1.0000000       0.29570012
  13.450000      -0.38017284E-01   0.10294568       0.10974119        102.45552        1.0000000       0.26541917
  13.500000      -0.73328869E-01   0.81184157E-01   0.10939831        102.83636        1.0000000       0.24936162
  13.550000      -0.98007917E-01   0.47921403E-01   0.10909635        103.21779        1.0000000       0.21906797
  13.600000      -0.10854304       0.79070848E-02   0.10883067        103.59984        1.0000000       0.18777484
  13.650000      -0.10341924      -0.33129867E-01   0.10859617        103.98257        1.0000000       0.16291032
  13.700000      -0.83352788E-01  -0.69282956E-01   0.10838734        104.36604        1.0000000       0.13719117
  13.750000      -0.51215363E-01  -0.95309284E-01   0.10819830        104.75027        1.0000000       0.92679780E-01
  13.800000      -0.11649439E-01  -0.10739293       0.10802292        105.13530        1.0000000       0.73431609E-01
  13.850000       0.29579797E-01  -0.10371934       0.10785484        105.52117        1.0000000       0.40007819E-01
  13.900000       0.66410787E-01  -0.84771582E-01   0.10768758        105.90790        1.0000000       0.12949228E-01
  13.950000       0.93375265E-01  -0.53295826E-01   0.10751458        106.29550        1.0000000      -0.27983178E-01
  14.000000       0.10642153      -0.13929774E-01   0.10732931        106.68400        1.0000000      -0.63337380E-01
  14.050000       0.10354550       0.27461879E-01   0.10712528        107.07340        1.0000000      -0.11143634
  14.100000       0.85127086E-01   0.64654176E-01   0.10689613        107.46370        1.0000000      -0.14918671
  14.150000       0.53910224E-01   0.92004662E-01   0.10663569        107.85492        1.0000000      -0.18509311
  14.200000       0.14617830E-01   0.10532847       0.10633799        108.24704        1.0000000      -0.22808938
  14.250000      -0.26749762E-01   0.10256651       0.10599735        108.64007        1.0000000      -0.26225231
  14.300000      -0.63831704E-01   0.84134687E-01   0.10560839        109.03398        1.0000000      -0.30233545
  14.350000      -0.90898979E-01   0.52889291E-01   0.10516607        109.42878        1.0000000      -0.34989814
  14.400000      -0.10376476       0.13703438E-01   0.10466570        109.82444        1.0000000      -0.37814150
  14.450000      -0.10046331      -0.27286666E-01   0.10410302        110.22095        1.0000000      -0.40889634
  14.500000      -0.81581273E-01  -0.63650554E-01   0.10347414        110.61830        1.0000000      -0.44296284
  14.550000      -0.50179611E-01  -0.89692983E-01   0.10277560        111.01646        1.0000000      -0.46899786
  14.600000      -0.11311259E-01  -0.10137530       0.10200440        111.41542        1.0000000      -0.50507478
  14.650000       0.28792159E-01  -0.96973915E-01   0.10115794        111.81516        1.0000000      -0.54008937
  14.700000       0.63733590E-01  -0.77362159E-01   0.10023410        112.21565        1.0000000      -0.56493292
  14.750000       0.87996187E-01  -0.45863907E-01   0.99231179E-01    112.61687        1.0000000      -0.58407814
  14.800000       0.97845472E-01  -0.76994867E-02   0.98147942E-01    113.01881        1.0000000      -0.60496393
  14.850000       0.91934354E-01   0.30885095E-01   0.96983579E-01    113.42144        1.0000000      -0.62779649
  14.900000       0.71506926E-01   0.63659014E-01   0.95737717E-01    113.82474        1.0000000      -0.64177802
  14.950000       0.40165580E-01   0.85440341E-01   0.94410411E-01    114.22869        1.0000000      -0.66699680
  15.000000       0.32416895E-02   0.92945615E-01   0.93002128E-01    114.63327        1.0000000      -0.67590341
  15.050000      -0.33120637E-01   0.85309952E-01   0.91513740E-01    115.03846        1.0000000      -0.68646492
  15.100000      -0.63008025E-01   0.64190055E-01   0.89946509E-01    115.44424        1.0000000      -0.68812375
  15.150000      -0.81726950E-01   0.33435936E-01   0.88302074E-01    115.85059        1.0000000      -0.69888334
  15.200000      -0.86567524E-01  -0.16067593E-02   0.86582434E-01    116.25749        1.0000000      -0.70544162
  15.250000      -0.77212209E-01  -0.35037231E-01   0.84789934E-01    116.66492        1.0000000      -0.70965846
  15.300000      -0.55724085E-01  -0.61414608E-01   0.82927243E-01    117.07287        1.0000000      -0.72020218
  15.350000      -0.26124885E-01  -0.76668507E-01   0.80997343E-01    117.48131        1.0000000      -0.72485613
  15.400000       0.63540344E-02  -0.78747568E-01   0.79003501E-01    117.89024        1.0000000      -0.74448674
  15.450000       0.36207827E-01  -0.67898317E-01   0.76949258E-01    118.29963        1.0000000      -0.74752919
  15.500000       0.58610992E-01  -0.46535342E-01   0.74838402E-01    118.70947        1.0000000      -0.74508841
  15.550000       0.70217737E-01  -0.18738152E-01   0.72674954E-01    119.11974        1.0000000      -0.75295187
  15.600000       0.69672865E-01   0.10523599E-01   0.70463141E-01    119.53043        1.0000000      -0.75906266
  15.650000       0.57752618E-01   0.36288862E-01   0.68207378E-01    119.94153        1.0000000      -0.77046028
  15.700000       0.37124666E-01   0.54462678E-01   0.65912246E-01    120.35301        1.0000000      -0.76731628
  15.750000       0.11786024E-01   0.62480559E-01   0.63582471E-01    120.76487        1.0000000      -0.76814836
  15.800000      -0.13705865E-01   0.59669029E-01   0.61222902E-01    121.17710        1.0000000      -0.76858872
  15.850000      -0.35060568E-01   0.47251711E-01   0.58838488E-01    121.58968        1.0000000      -0.77416345
  15.900000      -0.48988128E-01   0.28017652E-01   0.56434258E-01    122.00259        1.0000000      -0.78060854
  15.950000      -0.53710524E-01   0.57299473E-02   0.54015300E-01    122.41583        1.0000000      -0.79337663
  16.000000      -0.49170463E-01  -0.15603118E-01   0.51586740E-01    122.82939        1.0000000      -0.78921369
  16.050000      -0.36917223E-01  -0.32453144E-01   0.49153717E-01    123.24325        1.0000000      -0.79768391
  16.100000      -0.19710531E-01  -0.42360139E-01   0.46721370E-01    123.65740        1.0000000      -0.79482882
  16.150000      -0.93379072E-03  -0.44284965E-01   0.44294809E-01    124.07183        1.0000000      -0.79029299
  16.200000       0.16061765E-01  -0.38676596E-01   0.41879104E-01    124.48652        1.0000000      -0.78430812
  16.250000       0.28555136E-01  -0.27261990E-01   0.39479259E-01    124.90147        1.0000000      -0.76837055
  16.300000       0.34888363E-01  -0.12618511E-01   0.37100198E-01    125.31666        1.0000000      -0.76757768
  16.350000       0.34665556E-01   0.23739105E-02   0.34746744E-01    125.73208        1.0000000      -0.74513663
  16.400000       0.28699393E-01   0.15087577E-01   0.32423605E-01    126.14771        1.0000000      -0.73152257
  16.450000       0.18736446E-01   0.23602651E-01   0.30135353E-01    126.56354        1.0000000      -0.70732928
  16.500000       0.70332209E-02   0.26984921E-01   0.27886415E-01    126.97954        1.0000000      -0.69386028
  16.550000      -0.41217645E-02   0.25348126E-01   0.25681052E-01    127.39570        1.0000000      -0.66755549
  16.600000      -0.12841787E-01   0.19708788E-01   0.23523346E-01    127.81199        1.0000000      -0.64670084
  16.650000      -0.17950636E-01   0.11682073E-01   0.21417193E-01    128.22837        1.0000000      -0.61331117
  16.700000      -0.19117409E-01   0.30947722E-02   0.19366283E-01    128.64481        1.0000000      -0.58753577
  16.750000      -0.16808102E-01  -0.43985139E-02   0.17374096E-01    129.06125        1.0000000      -0.56704885
  16.800000      -0.12082985E-01  -0.96184798E-02   0.15443888E-01    129.47762        1.0000000      -0.52401509
  16.850000      -0.62978768E-02  -0.12029858E-01   0.13578686E-01    129.89381        1.0000000      -0.48658955
  16.900000      -0.78201027E-03  -0.11755299E-01   0.11781282E-01    130.30967        1.0000000      -0.44715958
  16.950000       0.34368389E-02  -0.94485769E-02   0.10054226E-01    130.72496        1.0000000      -0.40709148
  17.000000       0.58062126E-02  -0.60700205E-02   0.83998365E-02    131.13928        1.0000000      -0.35840827
  17.050000       0.62951534E-02  -0.26241650E-02   0.68202052E-02    131.55194        1.0000000      -0.32211441
  17.100000       0.53166727E-02   0.77868356E-04   0.53172429E-02    131.96154        1.0000000      -0.27181853
  17.150000       0.35576620E-02   0.15801852E-02   0.38928067E-02    132.36488        1.0000000      -0.23419138
  17.200000       0.17654301E-02   0.18389437E-02   0.25492072E-02    132.75268        1.0000000      -0.19237783
  17.250000       0.54553729E-03   0.11717218E-02   0.12924948E-02    133.08195        1.0000000      -0.14419877
  17.300000       0.21820853E-03   0.12214145E-03   0.25006698E-03    132.45719        1.0000000      -0.97668818E-01
  17.350000       0.76289604E-03  -0.71946763E-03   0.10486391E-02    131.19078        1.0000000      -0.62579091E-01
  17.400000       0.18572504E-02  -0.89129431E-03   0.20600448E-02    131.49945        1.0000000      -0.94036301E-02
  17.450000       0.29935793E-02  -0.18756273E-03   0.29994495E-02    131.88432        1.0000000       0.32565201E-01
  17.500000       0.36381727E-02   0.12907764E-02   0.38603633E-02    132.28782        1.0000000       0.82679391E-01
  17.550000       0.33904656E-02   0.31707610E-02   0.46420882E-02    132.69882        1.0000000       0.13362482
  17.600000       0.21013469E-02   0.49146718E-02   0.53450592E-02    133.11365        1.0000000       0.17032597
  17.650000      -0.78095808E-04   0.59696871E-02   0.59701980E-02    133.53077        1.0000000       0.21031266
  17.700000      -0.27277819E-02   0.59205812E-02   0.65187480E-02    133.94943        1.0000000       0.24526091
  17.750000      -0.52601260E-02   0.46067494E-02   0.69922146E-02    134.36921        1.0000000       0.28534098
  17.800000      -0.70651916E-02   0.21747844E-02   0.73923352E-02    134.78987        1.0000000       0.31997695
  17.850000      -0.76629284E-02  -0.94567166E-03   0.77210599E-02    135.21127        1.0000000       0.34884635
  17.900000      -0.68250440E-02  -0.41361506E-02   0.79805367E-02    135.63332        1.0000000       0.37883552
  17.950000      -0.46371714E-02  -0.67302427E-02   0.81730977E-02    136.05597        1.0000000       0.40194203
  18.000000      -0.14868676E-02  -0.81670014E-02   0.83012461E-02    136.47919        1.0000000       0.42182380
  18.050000       0.20191098E-02  -0.81203854E-02   0.83676438E-02    136.90299        1.0000000       0.45660605
  18.100000       0.51881560E-02  -0.65745957E-02   0.83750982E-02    137.32735        1.0000000       0.47322729
  18.150000       0.73942221E-02  -0.38284347E-02   0.83265499E-02    137.75232        1.0000000       0.49766333
  18.200000       0.82138794E-02  -0.42870460E-03   0.82250594E-02    138.17793        1.0000000       0.51262481
  18.250000       0.75152140E-02   0.29508860E-02   0.80737953E-02    138.60424        1.0000000       0.53031524
  18.300000       0.54803284E-02   0.56566515E-02   0.78760210E-02    139.03131        1.0000000       0.54571736
  18.350000       0.25579751E-02   0.71938351E-02   0.76350835E-02    139.45924        1.0000000       0.56058941
  18.400000      -0.64105068E-03   0.73264101E-02   0.73544021E-02    139.88815        1.0000000       0.56441402
  18.450000      -0.34804268E-02   0.61165715E-02   0.70374582E-02    140.31820        1.0000000       0.57281613
  18.500000      -0.54349372E-02   0.38971726E-02   0.66877871E-02    140.74959        1.0000000       0.57479097
  18.550000      -0.61965138E-02   0.11858988E-02   0.63089729E-02    141.18257        1.0000000       0.56977926
  18.600000      -0.57271064E-02  -0.14370458E-02   0.59046464E-02    141.61751        1.0000000       0.57951786
  18.650000      -0.42488569E-02  -0.34584790E-02   0.54784909E-02    142.05488        1.0000000       0.57636546
  18.700000      -0.21768205E-02  -0.45392958E-02   0.50342580E-02    142.49531        1.0000000       0.56484107
  18.750000      -0.12477415E-04  -0.45757851E-02   0.45758021E-02    142.93974        1.0000000       0.55716586
  18.800000       0.17754771E-02  -0.37035576E-02   0.41071472E-02    143.38950        1.0000000       0.56277081
  18.850000       0.28548293E-02  -0.22462948E-02   0.36326149E-02    143.84660        1.0000000       0.55959873
  18.900000       0.30947269E-02  -0.62431391E-03   0.31570718E-02    144.31420        1.0000000       0.55148314
  18.950000       0.25786479E-02   0.75331178E-03   0.26864295E-02    144.79749        1.0000000       0.54665077
  19.000000       0.15652499E-02   0.15865495E-02   0.22287096E-02    145.30542        1.0000000       0.53339754
  19.050000       0.40931696E-03   0.17492066E-02   0.17964588E-02    145.85419        1.0000000       0.52692522
  19.100000      -0.53595414E-03   0.13067494E-02   0.14123883E-02    146.47328        1.0000000       0.51953146
  19.150000      -0.10104837E-02   0.48510154E-03   0.11208929E-02    147.20728        1.0000000       0.51389724
  19.200000      -0.91031732E-03  -0.39962315E-03   0.99417116E-03    148.06852        1.0000000       0.50460124
  19.250000      -0.30758904E-03  -0.10313184E-02   0.10762103E-02    148.93580        1.0000000       0.48920775
  19.300000       0.57600266E-03  -0.11806399E-02   0.13136551E-02    149.67955        1.0000000       0.47874702
  19.350000       0.14340650E-02  -0.76651778E-03   0.16260664E-02    150.30558        1.0000000       0.46851985
  19.400000       0.19613111E-02   0.12252652E-03   0.19651346E-02    150.85884        1.0000000       0.46461709
  19.450000       0.19380893E-02   0.12518798E-02   0.23072480E-02    151.36996        1.0000000       0.47071280
  19.500000       0.12921973E-02   0.23025546E-02   0.26403658E-02    151.85584        1.0000000       0.46290497
  19.550000       0.12252653E-03   0.29551411E-02   0.29576801E-02    152.32581        1.0000000       0.46248070
  19.600000      -0.13212567E-02   0.29747090E-02   0.32549367E-02    152.78523        1.0000000       0.44864787
  19.650000      -0.26978597E-02   0.22753544E-02   0.35292612E-02    153.23739        1.0000000       0.45624212
  19.700000      -0.36576871E-02   0.94826468E-03   0.37786084E-02    153.68437        1.0000000       0.44768568
  19.750000      -0.39298434E-02  -0.75379173E-03   0.40014836E-02    154.12755        1.0000000       0.44855217
  19.800000      -0.33915126E-02  -0.24719869E-02   0.41967937E-02    154.56788        1.0000000       0.44810345
  19.850000      -0.21027616E-02  -0.38237157E-02   0.43637608E-02    155.00605        1.0000000       0.45711912
  19.900000      -0.29820055E-03  -0.44919834E-02   0.45018705E-02    155.44255        1.0000000       0.45175178
  19.950000       0.16627016E-02  -0.43006111E-02   0.46108385E-02    155.87776        1.0000000       0.45378465
  20.000000       0.33750144E-02  -0.32574353E-02   0.46905871E-02    156.31196        1.0000000       0.45127868
  20.050000       0.44788534E-02  -0.15553505E-02   0.47412280E-02    156.74540        1.0000000       0.46632541
  20.100000       0.47399063E-02   0.46896711E-03   0.47630496E-02    157.17825        1.0000000       0.47065025
  20.150000       0.41014058E-02   0.24089025E-02   0.47565051E-02    157.61069        1.0000000       0.48121240
  20.200000       0.26958329E-02   0.38770714E-02   0.47222026E-02    158.04285        1.0000000       0.48321383
  20.250000       0.81413831E-03   0.45892409E-02   0.46608962E-02    158.47485        1.0000000       0.49509009
  20.300000      -0.11598612E-02   0.44239589E-02   0.45734768E-02    158.90684        1.0000000       0.49722798
  20.350000      -0.28343501E-02   0.34448016E-02   0.44609639E-02    159.33891        1.0000000       0.49438411
  20.400000      -0.38939646E-02   0.18810406E-02   0.43244970E-02    159.77122        1.0000000       0.51802459
  20.450000      -0.41647022E-02   0.72203170E-04   0.41653281E-02    160.20389        1.0000000       0.51233466
  20.500000      -0.36451625E-02  -0.16098221E-02   0.39848133E-02    160.63710        1.0000000       0.52142071
  20.550000      -0.24981606E-02  -0.28426970E-02   0.37844065E-02    161.07104        1.0000000       0.52383013
  20.600000      -0.10060886E-02  -0.34207697E-02   0.35656528E-02    161.50598        1.0000000       0.52782213
  20.650000       0.49831566E-03  -0.32926900E-02   0.33301840E-02    161.94222        1.0000000       0.52724238
  20.700000       0.17088317E-02  -0.25621387E-02   0.30797176E-02    162.38022        1.0000000       0.54503959
  20.750000       0.24121415E-02  -0.14531913E-02   0.28160596E-02    162.82060        1.0000000       0.54395703
  20.800000       0.25287833E-02  -0.25006918E-03   0.25411178E-02    163.26425        1.0000000       0.55003034
  20.850000       0.21203154E-02   0.77330804E-03   0.22569322E-02    163.71254        1.0000000       0.54856879
  20.900000       0.13626966E-02   0.14167577E-02   0.19657427E-02    164.16766        1.0000000       0.54917421
  20.950000       0.49396871E-03   0.15954188E-02   0.16701396E-02    164.63336        1.0000000       0.54982945
  21.000000      -0.24980155E-03   0.13505097E-02   0.13734181E-02    165.11652        1.0000000       0.53402604
  21.050000      -0.69405688E-03   0.82812001E-03   0.10805081E-02    165.63117        1.0000000       0.52985345
  21.100000      -0.76621235E-03   0.23277022E-03   0.80078920E-03    166.20948        1.0000000       0.52678524
  21.150000      -0.50771572E-03  -0.23154094E-03   0.55802013E-03    166.93228        1.0000000       0.50814672
  21.200000      -0.55735941E-04  -0.41738006E-03   0.42108504E-03    167.94245        1.0000000       0.50353691
  21.250000       0.39983288E-03  -0.27276656E-03   0.48401232E-03    169.04732        1.0000000       0.47893409
  21.300000       0.67229418E-03   0.14666885E-03   0.68810698E-03    169.86080        1.0000000       0.48308366
  21.350000       0.63221633E-03   0.69487079E-03   0.93943754E-03    170.47858        1.0000000       0.47351019
  21.400000       0.24557383E-03   0.11770198E-02   0.12023652E-02    171.01111        1.0000000       0.46661711
  21.450000      -0.41389573E-03   0.14046322E-02   0.14643433E-02    171.50335        1.0000000       0.45568684
  21.500000      -0.11813501E-02   0.12497286E-02   0.17197121E-02    171.97408        1.0000000       0.43305843
  21.550000      -0.18423690E-02   0.68397717E-03   0.19652350E-02    172.43212        1.0000000       0.40805998
  21.600000      -0.21889004E-02  -0.20748449E-03   0.21987121E-02    172.88210        1.0000000       0.39383912
  21.650000      -0.20754943E-02  -0.12415062E-02   0.24184736E-02    173.32667        1.0000000       0.36846534
  21.700000      -0.14615221E-02  -0.21782944E-02   0.26231686E-02    173.76743        1.0000000       0.34496122
  21.750000      -0.42844255E-03  -0.27788340E-02   0.28116688E-02    174.20542        1.0000000       0.33017215
  21.800000       0.83276089E-03  -0.28644234E-02   0.29830206E-02    174.64132        1.0000000       0.30489927
  21.850000       0.20615666E-02  -0.23636983E-02   0.31364194E-02    175.07562        1.0000000       0.28078690
  21.900000       0.29862034E-02  -0.13354075E-02   0.32711961E-02    175.50867        1.0000000       0.25627810
  21.950000       0.33865831E-02   0.39066207E-04   0.33868085E-02    175.94072        1.0000000       0.22464336
  22.000000       0.31469646E-02   0.14922343E-02   0.34828364E-02    176.37197        1.0000000       0.20117437
  22.050000       0.22857480E-02   0.27279447E-02   0.35589782E-02    176.80256        1.0000000       0.17109248
  22.100000       0.95512437E-03   0.34865896E-02   0.36150476E-02    177.23260        1.0000000       0.13735104
  22.150000      -0.58964154E-03   0.36030425E-02   0.36509715E-02    177.66220        1.0000000       0.11555496
  22.200000      -0.20444255E-02   0.30439532E-02   0.36667870E-02    178.09142        1.0000000       0.82998036E-01
  22.250000      -0.31216223E-02   0.19158294E-02   0.36626395E-02    178.52033        1.0000000       0.42845199E-01
  22.300000      -0.36118195E-02   0.44212271E-03   0.36387790E-02    178.94898        1.0000000       0.10935381E-01
  22.350000      -0.34278465E-02  -0.10853112E-02   0.35955573E-02    179.37741        1.0000000      -0.23576657E-01
  22.400000      -0.26214642E-02  -0.23691799E-02   0.35334244E-02    179.80567        1.0000000      -0.55615483E-01
  22.450000      -0.13693530E-02  -0.31697885E-02   0.34529244E-02    180.23379        1.0000000      -0.86596710E-01
  22.500000       0.67861536E-04  -0.33540050E-02   0.33546915E-02    180.66181        1.0000000      -0.11110891
  22.550000       0.14037218E-02  -0.29195155E-02   0.32394453E-02    181.08975        1.0000000      -0.14840664
  22.600000       0.23876711E-02  -0.19896238E-02   0.31079858E-02    181.51766        1.0000000      -0.17848209
  22.650000       0.28564166E-02  -0.78071896E-03   0.29611886E-02    181.94557        1.0000000      -0.21166398
  22.700000       0.27637219E-02   0.44925862E-03   0.27999986E-02    182.37352        1.0000000      -0.24310478
  22.750000       0.21827548E-02   0.14589174E-02   0.26254254E-02    182.80156        1.0000000      -0.27799805
  22.800000       0.12816612E-02   0.20745612E-02   0.24385364E-02    183.22977        1.0000000      -0.30518387
  22.850000       0.27923469E-03   0.22229824E-02   0.22404515E-02    183.65821        1.0000000      -0.33914380
  22.900000      -0.60807285E-03   0.19392369E-02   0.20323366E-02    184.08702        1.0000000      -0.37840162
  22.950000      -0.12149691E-02   0.13488958E-02   0.18153980E-02    184.51638        1.0000000      -0.41226189
  23.000000      -0.14606689E-02   0.63034456E-03   0.15908765E-02    184.94657        1.0000000      -0.45161771
  23.050000      -0.13596483E-02  -0.32765986E-04   0.13600430E-02    185.37806        1.0000000      -0.48254600
  23.100000      -0.10084405E-02  -0.49685730E-03   0.11241972E-02    185.81176        1.0000000      -0.50487159
  23.150000      -0.55300385E-03  -0.69053185E-03   0.88467366E-03    186.24951        1.0000000      -0.53669635
  23.200000      -0.14579535E-03  -0.62612851E-03   0.64287883E-03    186.69599        1.0000000      -0.57054231
  23.250000       0.96098154E-04  -0.38878544E-03   0.40048593E-03    187.16708        1.0000000      -0.58689233
  23.300000       0.12107397E-03  -0.10678327E-03   0.16143597E-03    187.77280        1.0000000      -0.61324997
  23.350000      -0.46024503E-04   0.88431664E-04   0.99691595E-04    190.54623        1.0000000      -0.64264144
  23.400000      -0.31441599E-03   0.10172489E-03   0.33046236E-03    191.32424        1.0000000      -0.65481731
  23.450000      -0.55611358E-03  -0.97217227E-04   0.56454717E-03    191.81022        1.0000000      -0.68423762
  23.500000      -0.64497639E-03  -0.46382875E-03   0.79443795E-03    192.26061        1.0000000      -0.70543329
  23.550000      -0.49557397E-03  -0.88968935E-03   0.10184011E-02    192.69973        1.0000000      -0.71937272
  23.600000      -0.91439657E-04  -0.12317888E-02   0.12351780E-02    193.13385        1.0000000      -0.74277516
  23.650000       0.50498393E-03  -0.13524515E-02   0.14436530E-02    193.56530        1.0000000      -0.76282743
  23.700000       0.11637271E-02  -0.11595305E-02   0.16427939E-02    193.99515        1.0000000      -0.78477690
  23.750000       0.17175690E-02  -0.63628608E-03   0.18316395E-02    194.42396        1.0000000      -0.80082196
  23.800000       0.20039004E-02   0.14715982E-03   0.20092966E-02    194.85205        1.0000000      -0.82517646
  23.850000       0.19077880E-02   0.10443734E-02   0.21749416E-02    195.27961        1.0000000      -0.82147221
  23.900000       0.13953365E-02   0.18632747E-02   0.23278223E-02    195.70677        1.0000000      -0.86110798
  23.950000       0.52862960E-03   0.24099637E-02   0.24672605E-02    196.13361        1.0000000      -0.83823066
  24.000000      -0.54211029E-03   0.25353448E-02   0.25926544E-02    196.56019        1.0000000      -0.87131051
  24.050000      -0.16080161E-02   0.21732672E-02   0.27034804E-02    196.98655        1.0000000      -0.88098116
  24.100000      -0.24463203E-02   0.13607240E-02   0.27992951E-02    197.41272        1.0000000      -0.87134271
  24.150000      -0.28701501E-02   0.23477672E-03   0.28797364E-02    197.83872        1.0000000      -0.88715048
  24.200000      -0.27717938E-02  -0.99367246E-03   0.29445247E-02    198.26456        1.0000000      -0.89392363
  24.250000      -0.21492239E-02  -0.20836652E-02   0.29934635E-02    198.69025        1.0000000      -0.89340215
  24.300000      -0.11094643E-02  -0.28157457E-02   0.30264393E-02    199.11579        1.0000000      -0.89715705
  24.350000       0.15227419E-03  -0.30396096E-02   0.30434214E-02    199.54119        1.0000000      -0.89917682
  24.400000       0.13931663E-02  -0.27069973E-02   0.30444616E-02    199.96644        1.0000000      -0.89875991
  24.450000       0.23739786E-02  -0.18823562E-02   0.30296929E-02    200.39153        1.0000000      -0.87752861
  24.500000       0.29094100E-02  -0.72890461E-03   0.29993280E-02    200.81645        1.0000000      -0.88507020
  24.550000       0.29063276E-02   0.52664375E-03   0.29536577E-02    201.24119        1.0000000      -0.85937536
  24.600000       0.23815104E-02   0.16426010E-02   0.28930486E-02    201.66573        1.0000000      -0.86029190
  24.650000       0.14552852E-02   0.24130757E-02   0.28179406E-02    202.09004        1.0000000      -0.84034593
  24.700000       0.32296911E-03   0.27096647E-02   0.27288444E-02    202.51409        1.0000000      -0.84152770
  24.750000      -0.78896082E-03   0.25050334E-02   0.26263381E-02    202.93784        1.0000000      -0.80448557
  24.800000      -0.16717479E-02   0.18736863E-02   0.25110638E-02    203.36123        1.0000000      -0.80716847
  24.850000      -0.21771912E-02   0.97055671E-03   0.23837244E-02    203.78418        1.0000000      -0.78196029
  24.900000      -0.22450691E-02  -0.69029921E-05   0.22450797E-02    204.20660        1.0000000      -0.76014794
  24.950000      -0.19096400E-02  -0.86385880E-03   0.20959430E-02    204.62834        1.0000000      -0.75992953
  25.000000      -0.12847418E-02  -0.14498599E-02   0.19371771E-02    205.04923        1.0000000      -0.72346644
  25.050000      -0.53200026E-03  -0.16878345E-02   0.17696919E-02    205.46898        1.0000000      -0.68345288
  25.100000       0.17957869E-03  -0.15842971E-02   0.15944421E-02    205.88719        1.0000000      -0.66354796
  25.150000       0.71268295E-03  -0.12194405E-02   0.14124277E-02    206.30321        1.0000000      -0.61133958
  25.200000       0.99023978E-03  -0.72063444E-03   0.12246995E-02    206.71602        1.0000000      -0.58771523
  25.250000       0.10071814E-02  -0.22668871E-03   0.10323769E-02    207.12373        1.0000000      -0.54068091
  25.300000       0.82353417E-03   0.14783989E-03   0.83669897E-03    207.52274        1.0000000      -0.51829456
  25.350000       0.54161025E-03   0.33942372E-03   0.63917926E-03    207.90493        1.0000000      -0.47824415
  25.400000       0.27392221E-03   0.34712941E-03   0.44219024E-03    208.24785        1.0000000      -0.44679713
  25.450000       0.11052926E-03   0.22674012E-03   0.25224551E-03    208.46234        1.0000000      -0.40415349
  25.500000       0.94377044E-04   0.69714635E-04   0.11733353E-03    207.98133        1.0000000      -0.36029071
  25.550000       0.21089717E-03  -0.26906606E-04   0.21260663E-03    207.21822        1.0000000      -0.31958113
  25.600000       0.39429598E-03   0.86687987E-05   0.39439127E-03    207.36710        1.0000000      -0.28507397
  25.650000       0.54856856E-03   0.19979338E-03   0.58381920E-03    207.69439        1.0000000      -0.25330950
  25.700000       0.57743266E-03   0.51211615E-03   0.77181048E-03    208.07064        1.0000000      -0.21885250
  25.750000       0.41504979E-03   0.86085889E-03   0.95569051E-03    208.46666        1.0000000      -0.16792440
  25.800000       0.49163206E-04   0.11329056E-02   0.11339718E-02    208.87254        1.0000000      -0.10933539
  25.850000      -0.46981117E-03   0.12180750E-02   0.13055379E-02    209.28403        1.0000000      -0.78082025E-01
  25.900000      -0.10366351E-02   0.10414602E-02   0.14694392E-02    209.69899        1.0000000      -0.37296722E-01
  25.950000      -0.15145936E-02   0.58827867E-03   0.16248278E-02    210.11624        1.0000000      -0.21904619E-02
  26.000000      -0.17688630E-02  -0.85599258E-04   0.17709330E-02    210.53506        1.0000000       0.31458695E-01
  26.050000      -0.17017251E-02  -0.86080121E-03   0.19070520E-02    210.95502        1.0000000       0.59109772E-01
  26.100000      -0.12807500E-02  -0.15782671E-02   0.20325470E-02    211.37580        1.0000000       0.10756862
  26.150000      -0.55256997E-03  -0.20745138E-02   0.21468444E-02    211.79719        1.0000000       0.14545598
  26.200000       0.36178163E-03  -0.22201514E-02   0.22494351E-02    212.21904        1.0000000       0.17100327
  26.250000       0.12895981E-02  -0.19524226E-02   0.23398755E-02    212.64123        1.0000000       0.18926423
  26.300000       0.20425342E-02  -0.12937370E-02   0.24177885E-02    213.06368        1.0000000       0.21560040
  26.350000       0.24578817E-02  -0.35133252E-03   0.24828647E-02    213.48632        1.0000000       0.23644362
  26.400000       0.24355945E-02   0.70242964E-03   0.25348625E-02    213.90908        1.0000000       0.26202604
  26.450000       0.19623909E-02   0.16650789E-02   0.25736095E-02    214.33192        1.0000000       0.29122465
  26.500000       0.11171399E-02   0.23466591E-02   0.25990018E-02    214.75479        1.0000000       0.32067012
  26.550000       0.56010515E-04   0.26104040E-02   0.26110048E-02    215.17764        1.0000000       0.34730655
  26.600000      -0.10194909E-02   0.24022744E-02   0.26096521E-02    215.60045        1.0000000       0.36397107
  26.650000      -0.19045296E-02   0.17626760E-02   0.25950452E-02    216.02316        1.0000000       0.37837883
  26.700000      -0.24336401E-02   0.81773859E-03   0.25673529E-02    216.44573        1.0000000       0.37452958
  26.750000      -0.25146284E-02  -0.24780692E-03   0.25268091E-02    216.86812        1.0000000       0.40030213
  26.800000      -0.21462635E-02  -0.12299614E-02   0.24737122E-02    217.29028        1.0000000       0.40873146
  26.850000      -0.14160989E-02  -0.19481182E-02   0.24084229E-02    217.71213        1.0000000       0.43598772
  26.900000      -0.47931577E-03  -0.22815580E-02   0.23313624E-02    218.13362        1.0000000       0.42646869
  26.950000       0.47624399E-03  -0.21918680E-02   0.22430099E-02    218.55464        1.0000000       0.42790250
  27.000000       0.12706804E-02  -0.17267551E-02   0.21439011E-02    218.97509        1.0000000       0.43590131
  27.050000       0.17690485E-02  -0.10050708E-02   0.20346252E-02    219.39482        1.0000000       0.45430932
  27.100000       0.19066600E-02  -0.18715395E-03   0.19158233E-02    219.81364        1.0000000       0.45877666
  27.150000       0.16975169E-02   0.56218131E-03   0.17881867E-02    220.23130        1.0000000       0.46763449
  27.200000       0.12247965E-02   0.11092720E-02   0.16524560E-02    220.64743        1.0000000       0.48055959
  27.250000       0.61651410E-03   0.13777763E-02   0.15094228E-02    221.06153        1.0000000       0.46270630
  27.300000       0.12820193E-04   0.13598728E-02   0.13599332E-02    221.47285        1.0000000       0.46748969
  27.350000      -0.46692357E-03   0.11107507E-02   0.12049003E-02    221.88022        1.0000000       0.46353775
  27.400000      -0.74946336E-03   0.72871078E-03   0.10453300E-02    222.28172        1.0000000       0.47618877
  27.450000      -0.81973015E-03   0.32655934E-03   0.88238230E-03    222.67397        1.0000000       0.48389530
  27.500000      -0.71752179E-03   0.18416771E-05   0.71752415E-03    223.05051        1.0000000       0.47966034
  27.550000      -0.52053047E-03  -0.18658323E-03   0.55296046E-03    223.39726        1.0000000       0.48679116
  27.600000      -0.31879633E-03  -0.23002091E-03   0.39311667E-03    223.67811        1.0000000       0.48310637
  27.650000      -0.18764313E-03  -0.16710259E-03   0.25126325E-03    223.78064        1.0000000       0.46574771
  27.700000      -0.16630395E-03  -0.68003919E-04   0.17967063E-03    223.44125        1.0000000       0.45335469
  27.750000      -0.24776969E-03  -0.10406313E-04   0.24798813E-03    223.09505        1.0000000       0.46506043
  27.800000      -0.38234142E-03  -0.53940349E-04   0.38612760E-03    223.19323        1.0000000       0.46129477
  27.850000      -0.49372537E-03  -0.22014991E-03   0.54058369E-03    223.47251        1.0000000       0.45209424
  27.900000      -0.50320105E-03  -0.48350322E-03   0.69784430E-03    223.81852        1.0000000       0.44685607
  27.950000      -0.35525301E-03  -0.77604772E-03   0.85349562E-03    224.19458        1.0000000       0.43472698
  28.000000      -0.37620950E-04  -0.10047067E-02   0.10054108E-02    224.58645        1.0000000       0.45072041
  28.050000       0.40989828E-03  -0.10768588E-02   0.11522333E-02    224.98758        1.0000000       0.45556693
  28.100000       0.90071547E-03  -0.92757528E-03   0.12929363E-02    225.39458        1.0000000       0.44114782
  28.150000       0.13199929E-02  -0.54129273E-03   0.14266671E-02    225.80551        1.0000000       0.44440308
  28.200000       0.15522170E-02   0.38066147E-04   0.15526836E-02    226.21919        1.0000000       0.42974866
  28.250000       0.15110991E-02   0.71173667E-03   0.16703262E-02    226.63486        1.0000000       0.42279282
  28.300000       0.11642930E-02   0.13450944E-02   0.17790045E-02    227.05199        1.0000000       0.41609877
  28.350000       0.54646044E-03   0.17969378E-02   0.18781918E-02    227.47025        1.0000000       0.42186003
  28.400000      -0.24310901E-03   0.19523436E-02   0.19674215E-02    227.88935        1.0000000       0.41637043
  28.450000      -0.10584574E-02   0.17512731E-02   0.20462868E-02    228.30911        1.0000000       0.41843302
  28.500000      -0.17368566E-02   0.12058956E-02   0.21144397E-02    228.72938        1.0000000       0.40802321
  28.550000      -0.21340395E-02   0.40210210E-03   0.21715918E-02    229.15002        1.0000000       0.39581902
  28.600000      -0.21567204E-02  -0.51567934E-03   0.22175140E-02    229.57096        1.0000000       0.39140366
  28.650000      -0.17848223E-02  -0.13733465E-02   0.22520371E-02    229.99210        1.0000000       0.37354517
  28.700000      -0.10780844E-02  -0.20033961E-02   0.22750521E-02    230.41338        1.0000000       0.36921610
  28.750000      -0.16526240E-03  -0.22805291E-02   0.22865092E-02    230.83472        1.0000000       0.35927391
  28.800000       0.78188109E-03  -0.21485747E-02   0.22864189E-02    231.25607        1.0000000       0.36891219
  28.850000       0.15841058E-02  -0.16326520E-02   0.22748503E-02    231.67737        1.0000000       0.33247875
  28.900000       0.20918695E-02  -0.83383167E-03   0.22519310E-02    232.09855        1.0000000       0.32455750
  28.950000       0.22159181E-02   0.92464363E-04   0.22178464E-02    232.51956        1.0000000       0.31134172
  29.000000       0.19445959E-02   0.96941817E-03   0.21728380E-02    232.94032        1.0000000       0.29856577
  29.050000       0.13442520E-02   0.16357054E-02   0.21172023E-02    233.36075        1.0000000       0.30266380
  29.100000       0.54298278E-03   0.19781202E-02   0.20512898E-02    233.78076        1.0000000       0.30819025
  29.150000      -0.29829159E-03   0.19528526E-02   0.19755028E-02    234.20023        1.0000000       0.28678730
  29.200000      -0.10206499E-02   0.15910645E-02   0.18902942E-02    234.61902        1.0000000       0.27562633
  29.250000      -0.14999697E-02   0.98808102E-03   0.17961663E-02    235.03696        1.0000000       0.26734586
  29.300000      -0.16704869E-02   0.27926342E-03   0.16936690E-02    235.45381        1.0000000       0.24710346
  29.350000      -0.15342532E-02  -0.39143740E-03   0.15834002E-02    235.86925        1.0000000       0.24618258
  29.400000      -0.11550531E-02  -0.90278784E-03   0.14660059E-02    236.28287        1.0000000       0.24495568
  29.450000      -0.63899501E-03  -0.11803150E-02   0.13421841E-02    236.69405        1.0000000       0.23316253
  29.500000      -0.10700444E-03  -0.12079614E-02   0.12126915E-02    237.10189        1.0000000       0.24626287
  29.550000       0.33387967E-03  -0.10253709E-02   0.10783604E-02    237.50504        1.0000000       0.22246815
  29.600000       0.61353547E-03  -0.71233725E-03   0.94013304E-03    237.90126        1.0000000       0.20427634
  29.650000       0.71093124E-03  -0.36496288E-03   0.79913774E-03    238.28676        1.0000000       0.20114225
  29.700000       0.65314025E-03  -0.69887302E-04   0.65686865E-03    238.65445        1.0000000       0.20742278
  29.750000       0.50224710E-03   0.11686445E-03   0.51566409E-03    238.98966        1.0000000       0.18202715
  29.800000       0.33417848E-03   0.18129673E-03   0.38018911E-03    239.25812        1.0000000       0.20264315
  29.850000       0.21537982E-03   0.15067055E-03   0.26284992E-03    239.37147        1.0000000       0.18945878
  29.900000       0.18360804E-03   0.81303623E-04   0.20080386E-03    239.17790        1.0000000       0.17530893
  29.950000       0.23786151E-03   0.38646740E-04   0.24098064E-03    238.92211        1.0000000       0.17553262
  30.000000       0.33996195E-03   0.75282458E-04   0.34819761E-03    238.97897        1.0000000       0.16676457
